##TITLE= Adamantane
##JCAMP-DX= 4.24 
##DATA TYPE= SPECTRUM 
##DATA CLASS= XYDATA 
##ORIGIN= Bristol University
##OWNER= Paul May
##NPOINTS= 1791 
##XUNITS= Wavenumber / cm-1  
##YUNITS= Intensity 
##DATE= 01/05/22 
##TIME= 08:02:14.00 
##SPECTROMETER/DATA SYSTEM= Renishaw Laser Raman
##RESOLUTION= 1.000000
##FIRSTX= 3101.440430 
##LASTX= 101.348824 
##XFACTOR= 1.0 
##YFACTOR= 1.0  
##FIRSTY= 38 
##MAXY= 20518     
##MINY= 2
##$ASSIGNMENT TYPE=CHIME
##$CHIME TARGET=CHIMEDISP 
##PEAK ASSIGNMENT= (XYWA) 
##XYDATA= (X++(Y..Y))
3101.440430	38
3099.764401	37.188
3098.088372	37.249
3096.412343	36.562
3094.736314	34.004
3093.060286	39.551
3091.384257	39.245
3089.708228	40.691
3088.032199	37.527
3086.356170	36.359
3084.680141	37.865
3083.004113	36.849
3081.328084	36.116
3079.652055	43
3077.976026	46.019
3076.299997	47.211
3074.623968	45.055
3072.947940	44.312
3071.271911	47.017
3069.595882	50.043
3067.919853	52.409
3066.243824	43.234
3064.567795	50.279
3062.891767	52.992
3061.215738	53.905
3059.539709	54.694
3057.863680	57.575
3056.187651	56.064
3054.511622	58.158
3052.835594	57.982
3051.159565	57.559
3049.483536	60.4
3047.807507	61.879
3046.131478	63.474
3044.455449	69.808
3042.779421	68.091
3041.103392	68.612
3039.427363	70.102
3037.751334	71.953
3036.075305	74.394
3034.399276	78.855
3032.723248	83.487
3031.047219	82.006
3029.371190	86.89
3027.695161	94.944
3026.019132	93.564
3024.343103	98.142
3022.667075	95.547
3020.991046	101.06
3019.315017	111.98
3017.638988	113.22
3015.962959	118.49
3014.286931	124.3
3012.610902	127.99
3010.934873	135.09
3009.258844	144.53
3007.582815	136.95
3005.906786	151.88
3004.230758	158.69
3002.554729	171.06
3000.878700	186.41
2999.202671	188.01
2997.526642	192.63
2995.850613	217.99
2994.174585	216.47
2992.498556	221.78
2990.822527	248.03
2989.146498	255.44
2987.470469	278.81
2985.794440	282.31
2984.118412	307.5
2982.442383	325.8
2980.766354	337.44
2979.090325	370.23
2977.414296	380.83
2975.738267	417.21
2974.062239	452.48
2972.386210	467.03
2970.710181	498.44
2969.034152	521.22
2967.358123	554.76
2965.682094	600.67
2964.006066	646.99
2962.330037	704.8
2960.654008	751.52
2958.977979	801.8
2957.301950	853.85
2955.625921	966.97
2953.949893	1066.2
2952.273864	1204.1
2950.597835	1399.2
2948.921806	1605.2
2947.245777	2009.2
2945.569748	2481.2
2943.893720	2901.3
2942.217691	3191.8
2940.541662	3221
2938.865633	3046.5
2937.189604	2739.1
2935.513575	2411
2933.837547	2180.7
2932.161518	2202.5
2930.485489	2405.8
2928.809460	2792.9
2927.133431	3283.7
2925.457403	3985.5
2923.781374	4845.4
2922.105345	6136.7
2920.429316	8156.8
2918.753287	11309
2917.077258	15949
2915.401230	20518
2913.725201	21726
2912.049172	18488
2910.373143	13746
2908.697114	10195
2907.021085	8306
2905.345057	7285
2903.669028	6808
2901.992999	6521.3
2900.316970	6452.4
2898.640941	6577.9
2896.964912	6944.5
2895.288884	7394.1
2893.612855	7683
2891.936826	7604.2
2890.260797	7203.3
2888.584768	6501.8
2886.908739	5708.7
2885.232711	5097.3
2883.556682	4359.5
2881.880653	3763.2
2880.204624	3215.6
2878.528595	2710
2876.852566	2206.7
2875.176538	1884.7
2873.500509	1677.6
2871.824480	1456.1
2870.148451	1352.7
2868.472422	1277.3
2866.796393	1236.6
2865.120365	1229.2
2863.444336	1258.5
2861.768307	1274.2
2860.092278	1364.2
2858.416249	1465.9
2856.740220	1606.6
2855.064192	1873.3
2853.388163	2233
2851.712134	2972
2850.036105	3872.4
2848.360076	4759.8
2846.684047	5240.4
2845.008019	4905.6
2843.331990	4047.3
2841.655961	2952.1
2839.979932	2073.2
2838.303903	1454
2836.627875	1025.5
2834.951846	786.68
2833.275817	596.32
2831.599788	489.11
2829.923759	398.34
2828.247730	351.64
2826.571702	306.54
2824.895673	285.7
2823.219644	270.06
2821.543615	251.47
2819.867586	224.88
2818.191557	217.57
2816.515529	192.52
2814.839500	181.55
2813.163471	166.13
2811.487442	153.72
2809.811413	158.51
2808.135384	170.97
2806.459356	188.29
2804.783327	208.82
2803.107298	218.1
2801.431269	215.51
2799.755240	185.49
2798.079211	159.23
2796.403183	128.83
2794.727154	124.5
2793.051125	112.66
2791.375096	109.05
2789.699067	109.68
2788.023038	105.01
2786.347010	110.57
2784.670981	99.865
2782.994952	86.11
2781.318923	79.718
2779.642894	74.505
2777.966865	72.417
2776.290837	73.36
2774.614808	67.513
2772.938779	69.797
2771.262750	68.657
2769.586721	75
2767.910692	76.459
2766.234664	76.124
2764.558635	71.943
2762.882606	79.124
2761.206577	82.918
2759.530548	81.178
2757.854519	85.169
2756.178491	92.455
2754.502462	91.222
2752.826433	79.05
2751.150404	71.532
2749.474375	68.014
2747.798347	71.019
2746.122318	64.446
2744.446289	67.127
2742.770260	75.742
2741.094231	78.684
2739.418202	84.735
2737.742174	104.13
2736.066145	134.14
2734.390116	162.06
2732.714087	185.51
2731.038058	182.11
2729.362029	150.79
2727.686001	119.49
2726.009972	115.78
2724.333943	127.16
2722.657914	136.85
2720.981885	169.63
2719.305856	200
2717.629828	193.86
2715.953799	166.91
2714.277770	133.15
2712.601741	103.18
2710.925712	95.233
2709.249683	89.603
2707.573655	112.55
2705.897626	146.6
2704.221597	197.39
2702.545568	275.01
2700.869539	404.35
2699.193510	537.91
2697.517482	528.31
2695.841453	407.28
2694.165424	245.63
2692.489395	157.3
2690.813366	119.87
2689.137337	89.358
2687.461309	87.508
2685.785280	86.705
2684.109251	75.743
2682.433222	66.722
2680.757193	62.235
2679.081164	61.306
2677.405136	60.33
2675.729107	63.374
2674.053078	64
2672.377049	74.044
2670.701020	74.149
2669.024991	68.52
2667.348963	66.263
2665.672934	66.36
2663.996905	66.342
2662.320876	68.591
2660.644847	65.318
2658.968819	72.135
2657.292790	75.674
2655.616761	79.292
2653.940732	84.992
2652.264703	93.078
2650.588674	90.687
2648.912646	81.143
2647.236617	69.015
2645.560588	63.938
2643.884559	63.219
2642.208530	69.725
2640.532501	76.126
2638.856473	94.247
2637.180444	122.73
2635.504415	202.65
2633.828386	317.32
2632.152357	322.81
2630.476328	221.19
2628.800300	150
2627.124271	119.21
2625.448242	112.36
2623.772213	117.8
2622.096184	130.52
2620.420155	153.45
2618.744127	172.32
2617.068098	190.38
2615.392069	196.55
2613.716040	205.49
2612.040011	207.12
2610.363982	199.25
2608.687954	188.34
2607.011925	189.47
2605.335896	215.27
2603.659867	230.83
2601.983838	215.57
2600.307809	170.56
2598.631781	133.98
2596.955752	113.27
2595.279723	105.4
2593.603694	99.312
2591.927665	96.173
2590.251636	106.35
2588.575608	97.832
2586.899579	76.809
2585.223550	70.431
2583.547521	65.812
2581.871492	61.512
2580.195463	60.748
2578.519435	67.387
2576.843406	68.296
2575.167377	84.4
2573.491348	97.534
2571.815319	92.947
2570.139290	95.187
2568.463262	86.863
2566.787233	80.474
2565.111204	77.453
2563.435175	80.49
2561.759146	75.988
2560.083118	66.268
2558.407089	60.16
2556.731060	60.095
2555.055031	52.3
2553.379002	55.464
2551.702973	59
2550.026945	59
2548.350916	61.955
2546.674887	64.695
2544.998858	74.562
2543.322829	69
2541.646800	67.613
2539.970772	61.843
2538.294743	64.778
2536.618714	71.46
2534.942685	78.811
2533.266656	81.422
2531.590627	86.091
2529.914599	77.757
2528.238570	78.874
2526.562541	75.411
2524.886512	76.055
2523.210483	72.791
2521.534454	72.543
2519.858426	66.56
2518.182397	59.679
2516.506368	58.309
2514.830339	50.245
2513.154310	53.9
2511.478281	43.415
2509.802253	47.249
2508.126224	44.583
2506.450195	41.653
2504.774166	40.487
2503.098137	45.398
2501.422108	44.295
2499.746080	43.193
2498.070051	43
2496.394022	42.932
2494.717993	37.684
2493.041964	42.568
2491.365935	41.317
2489.689907	45.764
2488.013878	50.48
2486.337849	54.345
2484.661820	57.721
2482.985791	64.572
2481.309762	74.295
2479.633734	79.218
2477.957705	88.512
2476.281676	84.558
2474.605647	83
2472.929618	83
2471.253590	78.854
2469.577561	77.467
2467.901532	80.431
2466.225503	88.32
2464.549474	96.383
2462.873445	96.084
2461.197417	105.74
2459.521388	111.79
2457.845359	114.61
2456.169330	121
2454.493301	107.6
2452.817272	83.988
2451.141244	72.25
2449.465215	63.95
2447.789186	63.758
2446.113157	63.024
2444.437128	38.908
2442.761099	50.171
2441.085071	44.959
2439.409042	44.837
2437.733013	49.101
2436.056984	47.456
2434.380955	49.55
2432.704926	51.731
2431.028898	49.524
2429.352869	46.245
2427.676840	46.148
2426.000811	58.582
2424.324782	55.196
2422.648753	57.735
2420.972725	61.237
2419.296696	60
2417.620667	67.921
2415.944638	76.627
2414.268609	75.755
2412.592580	69.961
2410.916552	72.721
2409.240523	72.958
2407.564494	71.111
2405.888465	72.604
2404.212436	74.416
2402.536407	73.381
2400.860379	72.116
2399.184350	68.879
2397.508321	66.699
2395.832292	69.695
2394.156263	66.037
2392.480234	66.831
2390.804206	75.014
2389.128177	77.538
2387.452148	72.46
2385.776119	66.521
2384.100090	55.934
2382.424062	52.23
2380.748033	44.178
2379.072004	34.687
2377.395975	32
2375.719946	32
2374.043917	35.498
2372.367889	30.234
2370.691860	31.905
2369.015831	29.604
2367.339802	27.65
2365.663773	30.905
2363.987744	30.68
2362.311716	28.414
2360.635687	27.777
2358.959658	28.559
2357.283629	31.447
2355.607600	30.385
2353.931571	29.109
2352.255543	30.948
2350.579514	29.231
2348.903485	33.28
2347.227456	35.223
2345.551427	35.083
2343.875398	33.775
2342.199370	32.651
2340.523341	30
2338.847312	30.632
2337.171283	31.713
2335.495254	38.357
2333.819225	42.629
2332.143197	47.781
2330.467168	69.147
2328.791139	73.587
2327.115110	78.986
2325.439081	80.779
2323.763052	75
2322.087024	75
2320.410995	75
2318.734966	77.97
2317.058937	81.345
2315.382908	85.006
2313.706879	82.68
2312.030851	89.263
2310.354822	90.986
2308.678793	74.12
2307.002764	59.452
2305.326735	49.782
2303.650706	46.342
2301.974678	37.023
2300.298649	33.346
2298.622620	32.376
2296.946591	29.399
2295.270562	29.676
2293.594534	29.247
2291.918505	26.517
2290.242476	28.708
2288.566447	29.978
2286.890418	32.266
2285.214389	35.981
2283.538361	29
2281.862332	29.829
2280.186303	32
2278.510274	33.272
2276.834245	35
2275.158216	35
2273.482188	32.423
2271.806159	39.606
2270.130130	53.268
2268.454101	59.45
2266.778072	59.066
2265.102043	46.973
2263.426015	42.532
2261.749986	36.85
2260.073957	34.003
2258.397928	30.22
2256.721899	36.184
2255.045870	36.471
2253.369842	37.467
2251.693813	32.849
2250.017784	29.419
2248.341755	30.145
2246.665726	31
2244.989697	27.583
2243.313669	26.076
2241.637640	26
2239.961611	23.122
2238.285582	25.259
2236.609553	25.411
2234.933524	20.334
2233.257496	24.669
2231.581467	26
2229.905438	25.059
2228.229409	26.687
2226.553380	26.581
2224.877351	24.327
2223.201323	24.738
2221.525294	22.583
2219.849265	26.358
2218.173236	27
2216.497207	29.989
2214.821178	26.863
2213.145150	25.537
2211.469121	28.399
2209.793092	26.529
2208.117063	26.681
2206.441034	24.788
2204.765006	25.541
2203.088977	25
2201.412948	23.826
2199.736919	25.603
2198.060890	27.714
2196.384861	31.11
2194.708833	26.113
2193.032804	34.031
2191.356775	35.966
2189.680746	40.886
2188.004717	36.819
2186.328688	35.61
2184.652660	36.425
2182.976631	26.446
2181.300602	25
2179.624573	25
2177.948544	24.079
2176.272515	25.086
2174.596487	24.091
2172.920458	22.641
2171.244429	27.215
2169.568400	29.762
2167.892371	31.643
2166.216342	34.643
2164.540314	30.296
2162.864285	27.999
2161.188256	25.643
2159.512227	20.704
2157.836198	25.472
2156.160169	23
2154.484141	23.293
2152.808112	25.052
2151.132083	27.408
2149.456054	27.534
2147.780025	29.092
2146.103996	28.678
2144.427968	29.548
2142.751939	30.306
2141.075910	24.752
2139.399881	24.612
2137.723852	23.275
2136.047823	27.588
2134.371795	23.134
2132.695766	23
2131.019737	22.915
2129.343708	22.276
2127.667679	23.418
2125.991650	21
2124.315622	21.604
2122.639593	23.356
2120.963564	24
2119.287535	22.607
2117.611506	19.964
2115.935478	21.856
2114.259449	23.375
2112.583420	23.677
2110.907391	25.46
2109.231362	26.781
2107.555333	34.511
2105.879305	29.794
2104.203276	29
2102.527247	27.02
2100.851218	22.917
2099.175189	21.464
2097.499160	25.713
2095.823132	24.194
2094.147103	25.245
2092.471074	25.704
2090.795045	26.382
2089.119016	28.604
2087.442987	28
2085.766959	30.474
2084.090930	30.28
2082.414901	27.406
2080.738872	27
2079.062843	30.455
2077.386814	29.782
2075.710786	29
2074.034757	29
2072.358728	29.883
2070.682699	30.931
2069.006670	29.041
2067.330641	22.103
2065.654613	26.441
2063.978584	31.039
2062.302555	24.499
2060.626526	25.721
2058.950497	21.259
2057.274468	21.082
2055.598440	21.108
2053.922411	24.205
2052.246382	19.901
2050.570353	16.975
2048.894324	20.665
2047.218295	24.732
2045.542267	23.51
2043.866238	20.666
2042.190209	19.289
2040.514180	19.754
2038.838151	17.604
2037.162122	21.212
2035.486094	20.229
2033.810065	19.07
2032.134036	17.056
2030.458007	18.014
2028.781978	19
2027.105949	19.299
2025.429921	21.575
2023.753892	19
2022.077863	19
2020.401834	19.266
2018.725805	20.924
2017.049777	23
2015.373748	21.828
2013.697719	21.293
2012.021690	22.055
2010.345661	20.487
2008.669632	21.104
2006.993604	20.816
2005.317575	21.262
2003.641546	21.329
2001.965517	21.71
2000.289488	20.5
1998.613459	23.154
1996.937431	24
1995.261402	25.73
1993.585373	20.575
1991.909344	18.116
1990.233315	21.918
1988.557286	23
1986.881258	23.164
1985.205229	24.89
1983.529200	15.039
1981.853171	22.498
1980.177142	25
1978.501113	25
1976.825085	23.622
1975.149056	19.688
1973.473027	20.391
1971.796998	21.468
1970.120969	19.837
1968.444940	21
1966.768912	20.022
1965.092883	19
1963.416854	18.441
1961.740825	18.593
1960.064796	20.88
1958.388767	23.321
1956.712739	23.305
1955.036710	23.728
1953.360681	21.712
1951.684652	21
1950.008623	21.828
1948.332594	22.86
1946.656566	21.213
1944.980537	22.852
1943.304508	23.958
1941.628479	22.019
1939.952450	21.158
1938.276421	27.567
1936.600393	20.085
1934.924364	21
1933.248335	21
1931.572306	20.465
1929.896277	18.417
1928.220249	20.239
1926.544220	22.079
1924.868191	24.4
1923.192162	22.341
1921.516133	21.717
1919.840104	22.223
1918.164076	21.417
1916.488047	22.446
1914.812018	24.427
1913.135989	26.504
1911.459960	29.662
1909.783931	29.757
1908.107903	25.058
1906.431874	23.616
1904.755845	22.712
1903.079816	22
1901.403787	19.206
1899.727758	23.805
1898.051730	26.752
1896.375701	27.778
1894.699672	28
1893.023643	35.486
1891.347614	34.428
1889.671585	29.582
1887.995557	29
1886.319528	26.197
1884.643499	24.081
1882.967470	27.938
1881.291441	23.029
1879.615412	25.898
1877.939384	23.058
1876.263355	23.833
1874.587326	21.678
1872.911297	19.26
1871.235268	20.075
1869.559239	16.067
1867.883211	21
1866.207182	19.659
1864.531153	16.477
1862.855124	19.654
1861.179095	17.459
1859.503066	21.628
1857.827038	22.664
1856.151009	21.642
1854.474980	22.136
1852.798951	23.599
1851.122922	22.577
1849.446893	22
1847.770865	23.392
1846.094836	25
1844.418807	23.989
1842.742778	22.474
1841.066749	19.819
1839.390721	19.13
1837.714692	20
1836.038663	20.604
1834.362634	20.376
1832.686605	20
1831.010576	22.646
1829.334548	20.599
1827.658519	18.301
1825.982490	18
1824.306461	18.735
1822.630432	21.258
1820.954403	21.229
1819.278375	17.848
1817.602346	15.388
1815.926317	17.467
1814.250288	22.196
1812.574259	17.863
1810.898230	15.254
1809.222202	19.442
1807.546173	22.715
1805.870144	23
1804.194115	24.872
1802.518086	21.192
1800.842057	21
1799.166029	23.948
1797.490000	21.008
1795.813971	20.038
1794.137942	23
1792.461913	22.875
1790.785884	19.888
1789.109856	18.344
1787.433827	22.833
1785.757798	21.192
1784.081769	22.89
1782.405740	21.876
1780.729711	20.864
1779.053683	19.553
1777.377654	17.97
1775.701625	23
1774.025596	22.071
1772.349567	18.988
1770.673538	23.209
1768.997510	24.221
1767.321481	25.466
1765.645452	27.731
1763.969423	31.529
1762.293394	34.136
1760.617365	29.276
1758.941337	29.713
1757.265308	28.405
1755.589279	25.771
1753.913250	23.635
1752.237221	25.654
1750.561193	27
1748.885164	27.691
1747.209135	29.354
1745.533106	29.636
1743.857077	25.278
1742.181048	20.522
1740.505020	23.388
1738.828991	24.794
1737.152962	23.974
1735.476933	21.412
1733.800904	23.262
1732.124875	23.288
1730.448847	20.564
1728.772818	20.441
1727.096789	21
1725.420760	19.18
1723.744731	17.923
1722.068702	18.531
1720.392674	18.473
1718.716645	18.041
1717.040616	17.97
1715.364587	17.528
1713.688558	16.99
1712.012529	19
1710.336501	19.495
1708.660472	19
1706.984443	17.456
1705.308414	17.037
1703.632385	18.522
1701.956356	19
1700.280328	19.53
1698.604299	19.466
1696.928270	19.537
1695.252241	20.54
1693.576212	21
1691.900183	19.907
1690.224155	17.902
1688.548126	18.101
1686.872097	19
1685.196068	19.554
1683.520039	18.887
1681.844010	18
1680.167982	19.678
1678.491953	21
1676.815924	22.123
1675.139895	19.063
1673.463866	17.688
1671.787837	20.126
1670.111809	18.746
1668.435780	17.563
1666.759751	18.563
1665.083722	19
1663.407693	17.875
1661.731665	19.246
1660.055636	18.194
1658.379607	16.559
1656.703578	13.652
1655.027549	16.569
1653.351520	18.223
1651.675492	17.106
1649.999463	15.245
1648.323434	14.646
1646.647405	17.093
1644.971376	14.737
1643.295347	15.246
1641.619319	17.461
1639.943290	14.86
1638.267261	13
1636.591232	14.582
1634.915203	18.618
1633.239174	18.92
1631.563146	15.969
1629.887117	16.021
1628.211088	18.012
1626.535059	18.498
1624.859030	18
1623.183001	18.491
1621.506973	19.486
1619.830944	18.076
1618.154915	19.327
1616.478886	19.712
1614.802857	15.072
1613.126828	16.286
1611.450800	20.804
1609.774771	20.334
1608.098742	18.312
1606.422713	21.72
1604.746684	23.154
1603.070655	22.83
1601.394627	23.184
1599.718598	22.4
1598.042569	21.823
1596.366540	20.383
1594.690511	20.624
1593.014482	19.265
1591.338454	18.716
1589.662425	19.301
1587.986396	18.34
1586.310367	18.338
1584.634338	16.356
1582.958309	15.311
1581.282281	15.697
1579.606252	14.416
1577.930223	14.972
1576.254194	18.642
1574.578165	15
1572.902137	15.999
1571.226108	18.281
1569.550079	16.456
1567.874050	17.35
1566.198021	15.205
1564.521992	16.385
1562.845964	18
1561.169935	17.831
1559.493906	17
1557.817877	17.144
1556.141848	18.131
1554.465819	18.644
1552.789791	16.317
1551.113762	19
1549.437733	18.764
1547.761704	16.39
1546.085675	22.154
1544.409646	24.773
1542.733618	19.183
1541.057589	26.99
1539.381560	26.005
1537.705531	25.02
1536.029502	17.28
1534.353473	18.9
1532.677445	26.474
1531.001416	19.652
1529.325387	21.71
1527.649358	17.561
1525.973329	19.615
1524.297300	21.709
1522.621272	24.516
1520.945243	21.712
1519.269214	24.219
1517.593185	23.424
1515.917156	23.77
1514.241127	23.246
1512.565099	19.32
1510.889070	20.874
1509.213041	26.905
1507.537012	24.221
1505.860983	25.986
1504.184954	24.772
1502.508926	21.746
1500.832897	22.216
1499.156868	25.355
1497.480839	23.582
1495.804810	24.301
1494.128781	24.876
1492.452753	23
1490.776724	24.473
1489.100695	29.3
1487.424666	31.195
1485.748637	30.291
1484.072609	31.59
1482.396580	31.388
1480.720551	35.678
1479.044522	40.268
1477.368493	41.547
1475.692464	54.943
1474.016436	71.037
1472.340407	87.445
1470.664378	78.253
1468.988349	60.638
1467.312320	51.231
1465.636291	48.169
1463.960263	49.146
1462.284234	49.503
1460.608205	46
1458.932176	46.688
1457.256147	55.158
1455.580118	58.116
1453.904090	62.068
1452.228061	74.76
1450.552032	82.653
1448.876003	87.659
1447.199974	81.651
1445.523945	100.4
1443.847917	98.713
1442.171888	129.63
1440.495859	185.2
1438.819830	287.56
1437.143801	500.17
1435.467772	754.85
1433.791744	829.1
1432.115715	619.06
1430.439686	362.05
1428.763657	237.49
1427.087628	192.13
1425.411599	160.93
1423.735571	135.53
1422.059542	111.62
1420.383513	91.223
1418.707484	81.166
1417.031455	76.845
1415.355426	71.586
1413.679398	68
1412.003369	66.273
1410.327340	64.9
1408.651311	66.988
1406.975282	60.709
1405.299253	55.397
1403.623225	49.601
1401.947196	47.153
1400.271167	43
1398.595138	42.671
1396.919109	39.683
1395.243080	36.097
1393.567052	37.945
1391.891023	35.036
1390.214994	35
1388.538965	36.85
1386.862936	36.106
1385.186908	34.275
1383.510879	34.83
1381.834850	38.196
1380.158821	33.631
1378.482792	32.734
1376.806763	40.018
1375.130735	47.015
1373.454706	56.003
1371.778677	78.103
1370.102648	103.69
1368.426619	108.08
1366.750590	84.364
1365.074562	52.839
1363.398533	36.256
1361.722504	33.196
1360.046475	32.367
1358.370446	33.665
1356.694417	36.192
1355.018389	39.263
1353.342360	42.057
1351.666331	47.837
1349.990302	41.893
1348.314273	36
1346.638244	36.087
1344.962216	36.742
